#Spectrum of BD +17 4708, from Oke & Gunn 1983, ApJ 266, 713 ,Fluxes are averaged within 40A bandpasses centered on the given wavelength
#lambda/A F_lambda/cgs 
3080.00 0.47832E-12 
3160.00 0.49050E-12 
3240.00 0.49949E-12 
3320.00 0.51208E-12 
3400.00 0.51364E-12 
3480.00 0.51911E-12 
3560.00 0.52664E-12 
3640.00 0.52700E-12 
3680.00 0.53250E-12 
3720.00 0.53374E-12 
3760.00 0.58296E-12 
3800.00 0.65170E-12 
3840.00 0.64173E-12 
3880.00 0.65156E-12 
3920.00 0.63657E-12 
3960.00 0.62435E-12 
3980.00 0.63482E-12 
4000.00 0.75630E-12 
4020.00 0.76553E-12 
4060.00 0.74570E-12 
4100.00 0.68683E-12 
4140.00 0.77413E-12 
4200.00 0.76969E-12 
4240.00 0.76012E-12 
4260.00 0.75162E-12 
4300.00 0.69164E-12 
4340.00 0.65499E-12 
4380.00 0.74177E-12 
4400.00 0.75147E-12 
4560.00 0.73466E-12 
4760.00 0.71516E-12 
4800.00 0.71307E-12 
4820.00 0.69682E-12 
4860.00 0.62222E-12 
4900.00 0.69891E-12 
4920.00 0.69452E-12 
4960.00 0.68462E-12 
5000.00 0.68057E-12 
5120.00 0.66662E-12 
5240.00 0.65186E-12 
5400.00 0.63158E-12 
5560.00 0.61188E-12 
5760.00 0.58664E-12 
6020.00 0.55568E-12 
6420.00 0.50833E-12 
6460.00 0.50437E-12 
6500.00 0.49772E-12 
6540.00 0.46608E-12 
6560.00 0.43915E-12 
6580.00 0.46213E-12 
6620.00 0.48339E-12 
6660.00 0.48114E-12 
6700.00 0.47716E-12 
6740.00 0.47282E-12 
6780.00 0.46941E-12 
7100.00 0.43964E-12 
7460.00 0.40452E-12 
7780.00 0.37364E-12 
8100.00 0.34821E-12 
8380.00 0.32714E-12 
8780.00 0.29801E-12 
9300.00 0.26537E-12 
9700.00 0.24393E-12 
9940.00 0.23166E-12 
10260.00 0.21723E-12 
10820.00 0.19425E-12 
11140.00 0.18241E-12 
12000.00 0.15504E-12
